> P at   412.43 seconds at    35.00 degrees for a     10.0 km deep source in the iasp91 model with rayParam    8.612 s/deg.
    0.00    6361.0    -80.00    -60.00
    0.00    6361.0    -80.00    -60.00
    0.02    6356.0    -79.98    -60.00
    0.05    6351.0    -79.95    -60.00
    0.05    6350.1    -79.95    -60.00
    0.06    6349.1    -79.94    -60.00
    0.07    6347.2    -79.93    -60.00
    0.09    6343.5    -79.91    -60.00
    0.12    6336.0    -79.88    -60.00
    0.13    6334.7    -79.87    -60.00
    0.14    6333.3    -79.86    -60.00
    0.16    6330.7    -79.84    -60.00
    0.20    6325.4    -79.80    -60.00
    0.24    6320.1    -79.76    -60.00
    0.28    6314.8    -79.72    -60.00
    0.36    6304.1    -79.64    -60.00
    0.44    6293.5    -79.56    -60.00
    0.46    6290.0    -79.54    -60.00
    0.53    6280.2    -79.47    -60.00
    0.61    6270.5    -79.39    -60.00
    0.75    6251.0    -79.25    -60.00
    0.77    6249.2    -79.23    -60.00
    0.78    6247.4    -79.22    -60.00
    0.81    6243.8    -79.19    -60.00
    0.86    6236.5    -79.14    -60.00
    0.97    6222.6    -79.03    -60.00
    1.08    6208.5    -78.92    -60.00
    1.09    6207.2    -78.91    -60.00
    1.10    6206.0    -78.90    -60.00
    1.20    6193.2    -78.80    -60.00
    1.31    6180.3    -78.69    -60.00
    1.47    6161.0    -78.53    -60.00
    1.50    6157.3    -78.50    -60.00
    1.53    6153.7    -78.47    -60.00
    1.62    6142.0    -78.38    -60.00
    1.72    6130.2    -78.28    -60.00
    1.89    6111.0    -78.11    -60.00
    1.91    6108.8    -78.09    -60.00
    1.93    6106.6    -78.07    -60.00
    2.04    6094.8    -77.96    -60.00
    2.09    6088.8    -77.91    -60.00
    2.14    6082.8    -77.86    -60.00
    2.24    6072.0    -77.76    -60.00
    2.35    6061.0    -77.65    -60.00
    2.36    6059.9    -77.64    -60.00
    2.37    6058.8    -77.63    -60.00
    2.48    6046.8    -77.52    -60.00
    2.54    6040.7    -77.46    -60.00
    2.60    6034.6    -77.40    -60.00
    2.72    6022.9    -77.28    -60.00
    2.83    6011.0    -77.17    -60.00
    2.84    6010.6    -77.16    -60.00
    2.84    6010.2    -77.16    -60.00
    2.97    5998.0    -77.03    -60.00
    3.03    5991.8    -76.97    -60.00
    3.09    5985.6    -76.91    -60.00
    3.22    5973.3    -76.78    -60.00
    3.36    5961.0    -76.64    -60.00
    3.40    5957.4    -76.60    -60.00
    3.44    5953.8    -76.56    -60.00
    3.53    5946.5    -76.47    -60.00
    3.70    5932.6    -76.30    -60.00
    3.87    5918.6    -76.13    -60.00
    3.97    5911.0    -76.03    -60.00
    4.24    5890.3    -75.76    -60.00
    4.62    5861.7    -75.38    -60.00
    4.63    5861.0    -75.37    -60.00
    5.03    5832.7    -74.97    -60.00
    5.35    5811.0    -74.65    -60.00
    5.47    5803.3    -74.53    -60.00
    5.94    5773.4    -74.06    -60.00
    6.15    5761.0    -73.85    -60.00
    6.45    5743.1    -73.55    -60.00
    7.00    5712.3    -73.00    -60.00
    7.03    5711.0    -72.97    -60.00
    7.08    5708.9    -72.92    -60.00
    7.14    5706.8    -72.86    -60.00
    7.25    5702.6    -72.75    -60.00
    7.48    5694.1    -72.52    -60.00
    7.95    5677.6    -72.05    -60.00
    8.45    5661.0    -71.55    -60.00
    8.55    5657.9    -71.45    -60.00
    8.65    5654.9    -71.35    -60.00
    9.33    5635.0    -70.67    -60.00
   10.10    5615.0    -69.90    -60.00
   10.26    5611.0    -69.74    -60.00
   10.78    5599.8    -69.22    -60.00
   11.29    5588.6    -68.71    -60.00
   11.93    5577.3    -68.07    -60.00
   12.56    5566.0    -67.44    -60.00
   12.71    5563.8    -67.29    -60.00
   12.86    5561.5    -67.14    -60.00
   13.73    5551.2    -66.27    -60.00
   14.60    5540.8    -65.40    -60.00
   15.56    5536.5    -64.44    -60.00
   16.52    5532.1    -63.48    -60.00
   17.48    5527.8    -62.52    -60.00
   18.45    5532.1    -61.55    -60.00
   19.41    5536.5    -60.59    -60.00
   20.37    5540.8    -59.63    -60.00
   21.24    5551.2    -58.76    -60.00
   22.11    5561.5    -57.89    -60.00
   22.26    5563.8    -57.74    -60.00
   22.41    5566.0    -57.59    -60.00
   23.04    5577.3    -56.96    -60.00
   23.68    5588.6    -56.32    -60.00
   24.19    5599.8    -55.81    -60.00
   24.70    5611.0    -55.30    -60.00
   24.87    5615.0    -55.13    -60.00
   25.64    5635.0    -54.36    -60.00
   26.32    5654.9    -53.68    -60.00
   26.42    5657.9    -53.58    -60.00
   26.52    5661.0    -53.48    -60.00
   27.02    5677.6    -52.98    -60.00
   27.49    5694.1    -52.51    -60.00
   27.72    5702.6    -52.28    -60.00
   27.83    5706.8    -52.17    -60.00
   27.88    5708.9    -52.12    -60.00
   27.94    5711.0    -52.06    -60.00
   27.96    5712.3    -52.04    -60.00
   28.52    5743.1    -51.48    -60.00
   28.82    5761.0    -51.18    -60.00
   29.03    5773.4    -50.97    -60.00
   29.50    5803.3    -50.50    -60.00
   29.62    5811.0    -50.38    -60.00
   29.94    5832.7    -50.06    -60.00
   30.34    5861.0    -49.66    -60.00
   30.35    5861.7    -49.65    -60.00
   30.73    5890.3    -49.27    -60.00
   31.00    5911.0    -49.00    -60.00
   31.10    5918.6    -48.90    -60.00
   31.27    5932.6    -48.73    -60.00
   31.44    5946.5    -48.56    -60.00
   31.53    5953.8    -48.47    -60.00
   31.57    5957.4    -48.43    -60.00
   31.61    5961.0    -48.39    -60.00
   31.75    5973.3    -48.25    -60.00
   31.87    5985.6    -48.13    -60.00
   31.94    5991.8    -48.06    -60.00
   32.00    5998.0    -48.00    -60.00
   32.13    6010.2    -47.87    -60.00
   32.13    6010.6    -47.87    -60.00
   32.14    6011.0    -47.86    -60.00
   32.25    6022.9    -47.75    -60.00
   32.37    6034.6    -47.63    -60.00
   32.43    6040.7    -47.57    -60.00
   32.49    6046.8    -47.51    -60.00
   32.60    6058.8    -47.40    -60.00
   32.61    6059.9    -47.39    -60.00
   32.62    6061.0    -47.38    -60.00
   32.72    6072.0    -47.28    -60.00
   32.82    6082.8    -47.18    -60.00
   32.88    6088.8    -47.12    -60.00
   32.93    6094.8    -47.07    -60.00
   33.04    6106.6    -46.96    -60.00
   33.06    6108.8    -46.94    -60.00
   33.08    6111.0    -46.92    -60.00
   33.24    6130.2    -46.76    -60.00
   33.35    6142.0    -46.65    -60.00
   33.44    6153.7    -46.56    -60.00
   33.47    6157.3    -46.53    -60.00
   33.50    6161.0    -46.50    -60.00
   33.66    6180.3    -46.34    -60.00
   33.77    6193.2    -46.23    -60.00
   33.87    6206.0    -46.13    -60.00
   33.88    6207.2    -46.12    -60.00
   33.89    6208.5    -46.11    -60.00
   34.00    6222.6    -46.00    -60.00
   34.10    6236.5    -45.90    -60.00
   34.16    6243.8    -45.84    -60.00
   34.19    6247.4    -45.81    -60.00
   34.20    6249.2    -45.80    -60.00
   34.22    6251.0    -45.78    -60.00
   34.36    6270.5    -45.64    -60.00
   34.43    6280.2    -45.57    -60.00
   34.51    6290.0    -45.49    -60.00
   34.53    6293.5    -45.47    -60.00
   34.61    6304.1    -45.39    -60.00
   34.69    6314.8    -45.31    -60.00
   34.73    6320.1    -45.27    -60.00
   34.77    6325.4    -45.23    -60.00
   34.81    6330.7    -45.19    -60.00
   34.82    6333.3    -45.18    -60.00
   34.83    6334.7    -45.17    -60.00
   34.84    6336.0    -45.16    -60.00
   34.88    6343.5    -45.12    -60.00
   34.90    6347.2    -45.10    -60.00
   34.91    6349.1    -45.09    -60.00
   34.92    6350.1    -45.08    -60.00
   34.92    6351.0    -45.08    -60.00
   34.95    6356.0    -45.05    -60.00
   34.97    6361.0    -45.03    -60.00
   34.97    6361.0    -45.03    -60.00
   34.99    6366.0    -45.01    -60.00
   35.00    6368.5    -45.00    -60.00
   35.01    6369.7    -44.99    -60.00
   35.01    6371.0    -44.99    -60.00
   35.01    6371.0    -44.99    -60.00
